"AirBaseline_EmptyGlass1 - RawData"
"Wavelength nm.","Abs."
400.00,0.079
401.00,0.079
402.00,0.079
403.00,0.079
404.00,0.079
405.00,0.079
406.00,0.079
407.00,0.079
408.00,0.079
409.00,0.079
410.00,0.079
411.00,0.079
412.00,0.079
413.00,0.079
414.00,0.079
415.00,0.079
416.00,0.081
417.00,0.079
418.00,0.079
419.00,0.079
420.00,0.079
421.00,0.079
422.00,0.079
423.00,0.079
424.00,0.079
425.00,0.079
426.00,0.079
427.00,0.079
428.00,0.079
429.00,0.079
430.00,0.079
431.00,0.079
432.00,0.079
433.00,0.079
434.00,0.079
435.00,0.079
436.00,0.079
437.00,0.079
438.00,0.078
439.00,0.078
440.00,0.078
441.00,0.078
442.00,0.078
443.00,0.078
444.00,0.078
445.00,0.078
446.00,0.078
447.00,0.078
448.00,0.078
449.00,0.078
450.00,0.078
451.00,0.078
452.00,0.078
453.00,0.078
454.00,0.078
455.00,0.078
456.00,0.078
457.00,0.078
458.00,0.078
459.00,0.077
460.00,0.078
461.00,0.077
462.00,0.077
463.00,0.077
464.00,0.077
465.00,0.077
466.00,0.077
467.00,0.077
468.00,0.077
469.00,0.077
470.00,0.077
471.00,0.077
472.00,0.077
473.00,0.077
474.00,0.077
475.00,0.077
476.00,0.077
477.00,0.077
478.00,0.077
479.00,0.077
480.00,0.077
481.00,0.077
482.00,0.077
483.00,0.077
484.00,0.077
485.00,0.077
486.00,0.077
487.00,0.077
488.00,0.077
489.00,0.077
490.00,0.077
491.00,0.076
492.00,0.076
493.00,0.076
494.00,0.076
495.00,0.076
496.00,0.076
497.00,0.076
498.00,0.076
499.00,0.076
500.00,0.076
501.00,0.076
502.00,0.076
503.00,0.076
504.00,0.076
505.00,0.076
506.00,0.076
507.00,0.076
508.00,0.076
509.00,0.076
510.00,0.076
511.00,0.076
512.00,0.076
513.00,0.076
514.00,0.076
515.00,0.076
516.00,0.076
517.00,0.076
518.00,0.076
519.00,0.076
520.00,0.076
521.00,0.076
522.00,0.076
523.00,0.076
524.00,0.076
525.00,0.076
526.00,0.076
527.00,0.076
528.00,0.076
529.00,0.076
530.00,0.076
531.00,0.075
532.00,0.076
533.00,0.076
534.00,0.075
535.00,0.075
536.00,0.074
537.00,0.075
538.00,0.075
539.00,0.075
540.00,0.075
541.00,0.075
542.00,0.075
543.00,0.075
544.00,0.075
545.00,0.075
546.00,0.075
547.00,0.075
548.00,0.075
549.00,0.075
550.00,0.075
551.00,0.075
552.00,0.075
553.00,0.075
554.00,0.075
555.00,0.075
556.00,0.075
557.00,0.075
558.00,0.075
559.00,0.075
560.00,0.075
561.00,0.075
562.00,0.075
563.00,0.075
564.00,0.075
565.00,0.075
566.00,0.075
567.00,0.075
568.00,0.075
569.00,0.075
570.00,0.075
571.00,0.075
572.00,0.075
573.00,0.075
574.00,0.075
575.00,0.074
576.00,0.075
577.00,0.075
578.00,0.074
579.00,0.075
580.00,0.074
581.00,0.075
582.00,0.075
583.00,0.074
584.00,0.075
585.00,0.074
586.00,0.075
587.00,0.074
588.00,0.074
589.00,0.074
590.00,0.074
591.00,0.074
592.00,0.075
593.00,0.074
594.00,0.074
595.00,0.074
596.00,0.074
597.00,0.074
598.00,0.074
599.00,0.074
600.00,0.074
601.00,0.074
602.00,0.074
603.00,0.074
604.00,0.074
605.00,0.074
606.00,0.074
607.00,0.074
608.00,0.074
609.00,0.074
610.00,0.074
611.00,0.074
612.00,0.074
613.00,0.074
614.00,0.074
615.00,0.074
616.00,0.074
617.00,0.074
618.00,0.074
619.00,0.074
620.00,0.074
621.00,0.074
622.00,0.074
623.00,0.074
624.00,0.074
625.00,0.074
626.00,0.074
627.00,0.074
628.00,0.074
629.00,0.074
630.00,0.074
631.00,0.074
632.00,0.074
633.00,0.074
634.00,0.074
635.00,0.074
636.00,0.074
637.00,0.074
638.00,0.074
639.00,0.074
640.00,0.074
641.00,0.074
642.00,0.074
643.00,0.074
644.00,0.074
645.00,0.074
646.00,0.074
647.00,0.074
648.00,0.074
649.00,0.074
650.00,0.074
651.00,0.074
652.00,0.074
653.00,0.074
654.00,0.074
655.00,0.074
656.00,0.074
657.00,0.074
658.00,0.074
659.00,0.074
660.00,0.074
661.00,0.074
662.00,0.074
663.00,0.074
664.00,0.074
665.00,0.074
666.00,0.074
667.00,0.074
668.00,0.074
669.00,0.074
670.00,0.074
671.00,0.074
672.00,0.074
673.00,0.074
674.00,0.074
675.00,0.074
676.00,0.074
677.00,0.074
678.00,0.074
679.00,0.074
680.00,0.074
681.00,0.074
682.00,0.073
683.00,0.074
684.00,0.074
685.00,0.074
686.00,0.073
687.00,0.074
688.00,0.074
689.00,0.073
690.00,0.074
691.00,0.074
692.00,0.074
693.00,0.073
694.00,0.074
695.00,0.074
696.00,0.073
697.00,0.073
698.00,0.074
699.00,0.074
700.00,0.073
701.00,0.074
702.00,0.074
703.00,0.074
704.00,0.073
705.00,0.074
706.00,0.074
707.00,0.073
708.00,0.073
709.00,0.074
710.00,0.074
711.00,0.073
712.00,0.073
713.00,0.074
714.00,0.074
715.00,0.073
716.00,0.073
717.00,0.073
718.00,0.074
719.00,0.073
720.00,0.073
721.00,0.074
722.00,0.074
723.00,0.073
724.00,0.073
725.00,0.073
726.00,0.074
727.00,0.073
728.00,0.073
729.00,0.074
730.00,0.074
731.00,0.073
732.00,0.073
733.00,0.073
734.00,0.073
735.00,0.073
736.00,0.073
737.00,0.073
738.00,0.073
739.00,0.073
740.00,0.073
741.00,0.073
742.00,0.073
743.00,0.073
744.00,0.073
745.00,0.073
746.00,0.073
747.00,0.073
748.00,0.073
749.00,0.073
750.00,0.073
751.00,0.073
752.00,0.073
753.00,0.073
754.00,0.073
755.00,0.073
756.00,0.073
757.00,0.073
758.00,0.073
759.00,0.074
760.00,0.074
761.00,0.073
762.00,0.073
763.00,0.073
764.00,0.073
765.00,0.073
766.00,0.073
767.00,0.073
768.00,0.073
769.00,0.073
770.00,0.073
771.00,0.073
772.00,0.073
773.00,0.073
774.00,0.073
775.00,0.073
776.00,0.073
777.00,0.073
778.00,0.073
779.00,0.073
780.00,0.073
781.00,0.073
782.00,0.073
783.00,0.073
784.00,0.073
785.00,0.073
786.00,0.073
787.00,0.073
788.00,0.073
789.00,0.073
790.00,0.073
791.00,0.073
792.00,0.073
793.00,0.073
794.00,0.073
795.00,0.073
796.00,0.073
797.00,0.073
798.00,0.073
799.00,0.073
800.00,0.073
801.00,0.073
802.00,0.073
803.00,0.073
804.00,0.073
805.00,0.073
806.00,0.073
807.00,0.073
808.00,0.073
809.00,0.073
810.00,0.073
811.00,0.073
812.00,0.073
813.00,0.073
814.00,0.073
815.00,0.073
816.00,0.073
817.00,0.073
818.00,0.073
819.00,0.073
820.00,0.073
821.00,0.073
822.00,0.073
823.00,0.073
824.00,0.073
825.00,0.073
826.00,0.073
827.00,0.073
828.00,0.073
829.00,0.073
830.00,0.073
831.00,0.073
832.00,0.073
833.00,0.073
834.00,0.073
835.00,0.073
836.00,0.073
837.00,0.073
838.00,0.073
839.00,0.073
840.00,0.073
841.00,0.073
842.00,0.073
843.00,0.073
844.00,0.073
845.00,0.073
846.00,0.073
847.00,0.073
848.00,0.073
849.00,0.073
850.00,0.073
851.00,0.073
852.00,0.073
853.00,0.073
854.00,0.073
855.00,0.073
856.00,0.073
857.00,0.073
858.00,0.073
859.00,0.073
860.00,0.073
861.00,0.073
862.00,0.073
863.00,0.073
864.00,0.073
865.00,0.073
866.00,0.073
867.00,0.073
868.00,0.073
869.00,0.073
870.00,0.073
871.00,0.073
872.00,0.073
873.00,0.073
874.00,0.073
875.00,0.073
876.00,0.073
877.00,0.073
878.00,0.073
879.00,0.073
880.00,0.073
881.00,0.073
882.00,0.073
883.00,0.073
884.00,0.073
885.00,0.073
886.00,0.073
887.00,0.073
888.00,0.073
889.00,0.073
890.00,0.073
891.00,0.073
892.00,0.073
893.00,0.073
894.00,0.073
895.00,0.073
896.00,0.073
897.00,0.073
898.00,0.073
899.00,0.073
900.00,0.073
901.00,0.073
902.00,0.073
903.00,0.073
904.00,0.073
905.00,0.073
906.00,0.073
907.00,0.073
908.00,0.073
909.00,0.073
910.00,0.073
911.00,0.073
912.00,0.073
913.00,0.073
914.00,0.073
915.00,0.073
916.00,0.073
917.00,0.073
918.00,0.073
919.00,0.073
920.00,0.073
921.00,0.073
922.00,0.073
923.00,0.073
924.00,0.073
925.00,0.073
926.00,0.073
927.00,0.073
928.00,0.073
929.00,0.073
930.00,0.073
931.00,0.073
932.00,0.073
933.00,0.073
934.00,0.073
935.00,0.073
936.00,0.072
937.00,0.073
938.00,0.073
939.00,0.073
940.00,0.073
941.00,0.073
942.00,0.073
943.00,0.073
944.00,0.073
945.00,0.073
946.00,0.073
947.00,0.073
948.00,0.073
949.00,0.072
950.00,0.073
951.00,0.073
952.00,0.073
953.00,0.073
954.00,0.073
955.00,0.073
956.00,0.073
957.00,0.072
958.00,0.073
959.00,0.073
960.00,0.073
961.00,0.073
962.00,0.073
963.00,0.072
964.00,0.072
965.00,0.073
966.00,0.073
967.00,0.073
968.00,0.073
969.00,0.073
970.00,0.073
971.00,0.072
972.00,0.073
973.00,0.073
974.00,0.073
975.00,0.073
976.00,0.073
977.00,0.072
978.00,0.072
979.00,0.073
980.00,0.073
981.00,0.073
982.00,0.073
983.00,0.073
984.00,0.073
985.00,0.073
986.00,0.072
987.00,0.073
988.00,0.073
989.00,0.073
990.00,0.073
991.00,0.073
992.00,0.073
993.00,0.072
994.00,0.072
995.00,0.073
996.00,0.073
997.00,0.073
998.00,0.073
999.00,0.073
1000.00,0.072
1001.00,0.072
1002.00,0.072
1003.00,0.073
1004.00,0.073
1005.00,0.073
1006.00,0.073
1007.00,0.072
1008.00,0.072
1009.00,0.072
1010.00,0.073
1011.00,0.073
1012.00,0.073
1013.00,0.073
1014.00,0.073
1015.00,0.072
1016.00,0.072
1017.00,0.072
1018.00,0.073
1019.00,0.073
1020.00,0.073
1021.00,0.073
1022.00,0.073
1023.00,0.073
1024.00,0.072
1025.00,0.072
1026.00,0.073
1027.00,0.073
1028.00,0.073
1029.00,0.073
1030.00,0.073
1031.00,0.073
1032.00,0.072
1033.00,0.072
1034.00,0.072
1035.00,0.073
1036.00,0.073
1037.00,0.073
1038.00,0.073
1039.00,0.072
1040.00,0.072
1041.00,0.072
1042.00,0.073
1043.00,0.073
1044.00,0.073
1045.00,0.073
1046.00,0.073
1047.00,0.073
1048.00,0.072
1049.00,0.072
1050.00,0.072
1051.00,0.073
1052.00,0.073
1053.00,0.073
1054.00,0.073
1055.00,0.073
1056.00,0.073
1057.00,0.072
1058.00,0.072
1059.00,0.073
1060.00,0.073
1061.00,0.073
1062.00,0.073
1063.00,0.073
1064.00,0.073
1065.00,0.073
1066.00,0.072
1067.00,0.072
1068.00,0.073
1069.00,0.073
1070.00,0.073
1071.00,0.073
1072.00,0.073
1073.00,0.073
1074.00,0.072
1075.00,0.072
1076.00,0.072
1077.00,0.073
1078.00,0.073
1079.00,0.073
1080.00,0.073
1081.00,0.073
1082.00,0.073
1083.00,0.073
1084.00,0.072
1085.00,0.072
1086.00,0.073
1087.00,0.073
1088.00,0.073
1089.00,0.073
1090.00,0.073
1091.00,0.073
1092.00,0.072
1093.00,0.072
1094.00,0.072
1095.00,0.073
1096.00,0.073
1097.00,0.073
1098.00,0.074
1099.00,0.073
1100.00,0.073
