"File_250328_154150_10-5 - RawData"
"Wavelength nm.","Abs."
400.00,0.651
401.00,0.557
402.00,0.465
403.00,0.388
404.00,0.326
405.00,0.273
406.00,0.228
407.00,0.190
408.00,0.158
409.00,0.133
410.00,0.112
411.00,0.095
412.00,0.082
413.00,0.070
414.00,0.060
415.00,0.053
416.00,0.047
417.00,0.040
418.00,0.035
419.00,0.031
420.00,0.027
421.00,0.024
422.00,0.021
423.00,0.019
424.00,0.016
425.00,0.015
426.00,0.013
427.00,0.011
428.00,0.010
429.00,0.009
430.00,0.007
431.00,0.006
432.00,0.005
433.00,0.005
434.00,0.004
435.00,0.003
436.00,0.002
437.00,0.001
438.00,0.001
439.00,0.000
440.00,-0.001
441.00,-0.001
442.00,-0.002
443.00,-0.002
444.00,-0.003
445.00,-0.003
446.00,-0.004
447.00,-0.004
448.00,-0.005
449.00,-0.005
450.00,-0.006
451.00,-0.006
452.00,-0.006
453.00,-0.007
454.00,-0.007
455.00,-0.007
456.00,-0.008
457.00,-0.008
458.00,-0.009
459.00,-0.009
460.00,-0.009
461.00,-0.010
462.00,-0.010
463.00,-0.010
464.00,-0.010
465.00,-0.011
466.00,-0.011
467.00,-0.011
468.00,-0.012
469.00,-0.012
470.00,-0.012
471.00,-0.012
472.00,-0.012
473.00,-0.013
474.00,-0.013
475.00,-0.013
476.00,-0.013
477.00,-0.013
478.00,-0.014
479.00,-0.014
480.00,-0.014
481.00,-0.014
482.00,-0.014
483.00,-0.014
484.00,-0.015
485.00,-0.015
486.00,-0.015
487.00,-0.015
488.00,-0.015
489.00,-0.015
490.00,-0.015
491.00,-0.016
492.00,-0.016
493.00,-0.016
494.00,-0.016
495.00,-0.016
496.00,-0.016
497.00,-0.016
498.00,-0.016
499.00,-0.016
500.00,-0.017
501.00,-0.017
502.00,-0.017
503.00,-0.017
504.00,-0.017
505.00,-0.017
506.00,-0.017
507.00,-0.017
508.00,-0.017
509.00,-0.017
510.00,-0.017
511.00,-0.017
512.00,-0.018
513.00,-0.018
514.00,-0.018
515.00,-0.018
516.00,-0.018
517.00,-0.018
518.00,-0.018
519.00,-0.018
520.00,-0.018
521.00,-0.018
522.00,-0.018
523.00,-0.018
524.00,-0.018
525.00,-0.018
526.00,-0.018
527.00,-0.018
528.00,-0.018
529.00,-0.018
530.00,-0.019
531.00,-0.019
532.00,-0.019
533.00,-0.019
534.00,-0.019
535.00,-0.019
536.00,-0.020
537.00,-0.019
538.00,-0.019
539.00,-0.019
540.00,-0.019
541.00,-0.019
542.00,-0.019
543.00,-0.019
544.00,-0.019
545.00,-0.019
546.00,-0.019
547.00,-0.019
548.00,-0.019
549.00,-0.019
550.00,-0.019
551.00,-0.019
552.00,-0.019
553.00,-0.019
554.00,-0.019
555.00,-0.019
556.00,-0.019
557.00,-0.019
558.00,-0.019
559.00,-0.019
560.00,-0.019
561.00,-0.019
562.00,-0.019
563.00,-0.019
564.00,-0.019
565.00,-0.019
566.00,-0.019
567.00,-0.019
568.00,-0.019
569.00,-0.019
570.00,-0.019
571.00,-0.019
572.00,-0.020
573.00,-0.020
574.00,-0.020
575.00,-0.020
576.00,-0.020
577.00,-0.020
578.00,-0.020
579.00,-0.020
580.00,-0.020
581.00,-0.020
582.00,-0.020
583.00,-0.020
584.00,-0.020
585.00,-0.020
586.00,-0.020
587.00,-0.020
588.00,-0.020
589.00,-0.020
590.00,-0.020
591.00,-0.020
592.00,-0.020
593.00,-0.020
594.00,-0.020
595.00,-0.020
596.00,-0.020
597.00,-0.021
598.00,-0.021
599.00,-0.020
600.00,-0.020
601.00,-0.020
602.00,-0.020
603.00,-0.020
604.00,-0.020
605.00,-0.020
606.00,-0.020
607.00,-0.020
608.00,-0.020
609.00,-0.020
610.00,-0.021
611.00,-0.021
612.00,-0.021
613.00,-0.021
614.00,-0.021
615.00,-0.021
616.00,-0.021
617.00,-0.021
618.00,-0.021
619.00,-0.021
620.00,-0.021
621.00,-0.021
622.00,-0.021
623.00,-0.022
624.00,-0.022
625.00,-0.022
626.00,-0.022
627.00,-0.022
628.00,-0.022
629.00,-0.022
630.00,-0.022
631.00,-0.022
632.00,-0.022
633.00,-0.022
634.00,-0.023
635.00,-0.023
636.00,-0.023
637.00,-0.023
638.00,-0.023
639.00,-0.023
640.00,-0.023
641.00,-0.023
642.00,-0.023
643.00,-0.023
644.00,-0.023
645.00,-0.023
646.00,-0.024
647.00,-0.024
648.00,-0.024
649.00,-0.024
650.00,-0.024
651.00,-0.024
652.00,-0.024
653.00,-0.024
654.00,-0.024
655.00,-0.024
656.00,-0.024
657.00,-0.024
658.00,-0.024
659.00,-0.024
660.00,-0.024
661.00,-0.024
662.00,-0.024
663.00,-0.024
664.00,-0.024
665.00,-0.024
666.00,-0.024
667.00,-0.024
668.00,-0.024
669.00,-0.024
670.00,-0.024
671.00,-0.024
672.00,-0.024
673.00,-0.024
674.00,-0.024
675.00,-0.024
676.00,-0.024
677.00,-0.024
678.00,-0.024
679.00,-0.024
680.00,-0.024
681.00,-0.024
682.00,-0.024
683.00,-0.024
684.00,-0.024
685.00,-0.025
686.00,-0.025
687.00,-0.025
688.00,-0.025
689.00,-0.025
690.00,-0.025
691.00,-0.025
692.00,-0.025
693.00,-0.025
694.00,-0.025
695.00,-0.025
696.00,-0.025
697.00,-0.025
698.00,-0.024
699.00,-0.025
700.00,-0.025
701.00,-0.024
702.00,-0.024
703.00,-0.024
704.00,-0.024
705.00,-0.024
706.00,-0.024
707.00,-0.024
708.00,-0.024
709.00,-0.024
710.00,-0.024
711.00,-0.024
712.00,-0.024
713.00,-0.024
714.00,-0.024
715.00,-0.024
716.00,-0.024
717.00,-0.025
718.00,-0.024
719.00,-0.024
720.00,-0.024
721.00,-0.025
722.00,-0.024
723.00,-0.024
724.00,-0.024
725.00,-0.024
726.00,-0.024
727.00,-0.024
728.00,-0.024
729.00,-0.024
730.00,-0.024
731.00,-0.024
732.00,-0.024
733.00,-0.023
734.00,-0.023
735.00,-0.023
736.00,-0.023
737.00,-0.023
738.00,-0.023
739.00,-0.022
740.00,-0.022
741.00,-0.022
742.00,-0.022
743.00,-0.022
744.00,-0.022
745.00,-0.022
746.00,-0.022
747.00,-0.022
748.00,-0.022
749.00,-0.023
750.00,-0.023
751.00,-0.023
752.00,-0.023
753.00,-0.023
754.00,-0.023
755.00,-0.023
756.00,-0.023
757.00,-0.023
758.00,-0.023
759.00,-0.023
760.00,-0.022
761.00,-0.023
762.00,-0.024
763.00,-0.024
764.00,-0.024
765.00,-0.024
766.00,-0.024
767.00,-0.024
768.00,-0.024
769.00,-0.024
770.00,-0.024
771.00,-0.024
772.00,-0.024
773.00,-0.025
774.00,-0.024
775.00,-0.024
776.00,-0.025
777.00,-0.025
778.00,-0.025
779.00,-0.025
780.00,-0.025
781.00,-0.025
782.00,-0.025
783.00,-0.025
784.00,-0.025
785.00,-0.025
786.00,-0.025
787.00,-0.025
788.00,-0.025
789.00,-0.025
790.00,-0.025
791.00,-0.025
792.00,-0.025
793.00,-0.025
794.00,-0.025
795.00,-0.025
796.00,-0.025
797.00,-0.025
798.00,-0.025
799.00,-0.025
800.00,-0.025
801.00,-0.024
802.00,-0.024
803.00,-0.024
804.00,-0.024
805.00,-0.024
806.00,-0.024
807.00,-0.024
808.00,-0.024
809.00,-0.024
810.00,-0.024
811.00,-0.024
812.00,-0.024
813.00,-0.024
814.00,-0.024
815.00,-0.024
816.00,-0.024
817.00,-0.024
818.00,-0.024
819.00,-0.024
820.00,-0.024
821.00,-0.024
822.00,-0.024
823.00,-0.024
824.00,-0.024
825.00,-0.024
826.00,-0.024
827.00,-0.024
828.00,-0.024
829.00,-0.024
830.00,-0.024
831.00,-0.024
832.00,-0.024
833.00,-0.024
834.00,-0.024
835.00,-0.024
836.00,-0.024
837.00,-0.024
838.00,-0.024
839.00,-0.024
840.00,-0.024
841.00,-0.024
842.00,-0.024
843.00,-0.024
844.00,-0.024
845.00,-0.024
846.00,-0.024
847.00,-0.024
848.00,-0.024
849.00,-0.024
850.00,-0.024
851.00,-0.024
852.00,-0.024
853.00,-0.024
854.00,-0.024
855.00,-0.023
856.00,-0.023
857.00,-0.023
858.00,-0.023
859.00,-0.022
860.00,-0.022
861.00,-0.022
862.00,-0.021
863.00,-0.021
864.00,-0.021
865.00,-0.020
866.00,-0.020
867.00,-0.019
868.00,-0.019
869.00,-0.019
870.00,-0.018
871.00,-0.018
872.00,-0.018
873.00,-0.018
874.00,-0.018
875.00,-0.018
876.00,-0.018
877.00,-0.018
878.00,-0.018
879.00,-0.018
880.00,-0.018
881.00,-0.018
882.00,-0.018
883.00,-0.018
884.00,-0.017
885.00,-0.017
886.00,-0.016
887.00,-0.016
888.00,-0.015
889.00,-0.014
890.00,-0.013
891.00,-0.012
892.00,-0.011
893.00,-0.010
894.00,-0.009
895.00,-0.008
896.00,-0.006
897.00,-0.005
898.00,-0.003
899.00,-0.002
900.00,-0.000
901.00,0.001
902.00,0.003
903.00,0.005
904.00,0.006
905.00,0.007
906.00,0.009
907.00,0.010
908.00,0.011
909.00,0.011
910.00,0.011
911.00,0.011
912.00,0.011
913.00,0.010
914.00,0.010
915.00,0.009
916.00,0.008
917.00,0.008
918.00,0.007
919.00,0.007
920.00,0.006
921.00,0.005
922.00,0.005
923.00,0.004
924.00,0.003
925.00,0.002
926.00,0.001
927.00,-0.000
928.00,-0.001
929.00,-0.002
930.00,-0.003
931.00,-0.004
932.00,-0.005
933.00,-0.006
934.00,-0.006
935.00,-0.007
936.00,-0.008
937.00,-0.009
938.00,-0.009
939.00,-0.010
940.00,-0.011
941.00,-0.011
942.00,-0.012
943.00,-0.012
944.00,-0.013
945.00,-0.014
946.00,-0.014
947.00,-0.014
948.00,-0.015
949.00,-0.015
950.00,-0.016
951.00,-0.016
952.00,-0.016
953.00,-0.017
954.00,-0.017
955.00,-0.017
956.00,-0.018
957.00,-0.018
958.00,-0.019
959.00,-0.019
960.00,-0.019
961.00,-0.020
962.00,-0.020
963.00,-0.020
964.00,-0.020
965.00,-0.020
966.00,-0.021
967.00,-0.021
968.00,-0.021
969.00,-0.021
970.00,-0.021
971.00,-0.021
972.00,-0.021
973.00,-0.021
974.00,-0.022
975.00,-0.021
976.00,-0.021
977.00,-0.021
978.00,-0.021
979.00,-0.021
980.00,-0.021
981.00,-0.021
982.00,-0.021
983.00,-0.020
984.00,-0.020
985.00,-0.020
986.00,-0.019
987.00,-0.019
988.00,-0.019
989.00,-0.018
990.00,-0.018
991.00,-0.017
992.00,-0.017
993.00,-0.016
994.00,-0.016
995.00,-0.015
996.00,-0.015
997.00,-0.014
998.00,-0.014
999.00,-0.013
1000.00,-0.012
1001.00,-0.011
1002.00,-0.010
1003.00,-0.008
1004.00,-0.007
1005.00,-0.005
1006.00,-0.004
1007.00,-0.003
1008.00,-0.003
1009.00,-0.002
1010.00,-0.002
1011.00,-0.001
1012.00,-0.001
1013.00,-0.001
1014.00,-0.000
1015.00,0.000
1016.00,0.000
1017.00,0.000
1018.00,0.000
1019.00,0.000
1020.00,0.000
1021.00,-0.000
1022.00,-0.000
1023.00,-0.000
1024.00,-0.000
1025.00,-0.000
1026.00,-0.000
1027.00,-0.001
1028.00,-0.001
1029.00,-0.001
1030.00,-0.001
1031.00,-0.001
1032.00,-0.001
1033.00,-0.001
1034.00,-0.001
1035.00,-0.002
1036.00,-0.002
1037.00,-0.002
1038.00,-0.002
1039.00,-0.002
1040.00,-0.002
1041.00,-0.002
1042.00,-0.002
1043.00,-0.003
1044.00,-0.003
1045.00,-0.003
1046.00,-0.004
1047.00,-0.004
1048.00,-0.004
1049.00,-0.004
1050.00,-0.005
1051.00,-0.005
1052.00,-0.006
1053.00,-0.006
1054.00,-0.006
1055.00,-0.007
1056.00,-0.007
1057.00,-0.007
1058.00,-0.008
1059.00,-0.008
1060.00,-0.008
1061.00,-0.008
1062.00,-0.009
1063.00,-0.009
1064.00,-0.009
1065.00,-0.009
1066.00,-0.009
1067.00,-0.010
1068.00,-0.010
1069.00,-0.010
1070.00,-0.011
1071.00,-0.011
1072.00,-0.012
1073.00,-0.012
1074.00,-0.012
1075.00,-0.013
1076.00,-0.013
1077.00,-0.013
1078.00,-0.014
1079.00,-0.014
1080.00,-0.014
1081.00,-0.014
1082.00,-0.014
1083.00,-0.014
1084.00,-0.015
1085.00,-0.015
1086.00,-0.015
1087.00,-0.015
1088.00,-0.015
1089.00,-0.015
1090.00,-0.015
1091.00,-0.015
1092.00,-0.015
1093.00,-0.015
1094.00,-0.016
1095.00,-0.015
1096.00,-0.015
1097.00,-0.015
1098.00,-0.015
1099.00,-0.015
1100.00,-0.015
